; WAVELENGTH MAT._REFRACTIVE_INDEX MAT._ABSORPTION
200.00000 1.51725 0.00000 
200.36018 1.51684 0.00000 
200.72036 1.51643 0.00000 
201.08054 1.51603 0.00000 
201.44072 1.51562 0.00000 
201.80090 1.51522 0.00000 
202.16108 1.51482 0.00000 
202.52126 1.51442 0.00000 
202.88144 1.51403 0.00000 
203.24162 1.51363 0.00000 
203.60180 1.51324 0.00000 
203.96198 1.51285 0.00000 
204.32216 1.51247 0.00000 
204.68234 1.51208 0.00000 
205.04252 1.51170 0.00000 
205.40270 1.51132 0.00000 
205.76288 1.51094 0.00000 
206.12306 1.51056 0.00000 
206.48324 1.51019 0.00000 
206.84342 1.50982 0.00000 
207.20360 1.50944 0.00000 
207.56378 1.50908 0.00000 
207.92396 1.50871 0.00000 
208.28414 1.50834 0.00000 
208.64432 1.50798 0.00000 
209.00450 1.50762 0.00000 
209.36468 1.50726 0.00000 
209.72486 1.50690 0.00000 
210.08504 1.50654 0.00000 
210.44522 1.50619 0.00000 
210.80540 1.50584 0.00000 
211.16558 1.50549 0.00000 
211.52576 1.50514 0.00000 
211.88594 1.50479 0.00000 
212.24612 1.50445 0.00000 
212.60630 1.50410 0.00000 
212.96648 1.50376 0.00000 
213.32666 1.50342 0.00000 
213.68684 1.50308 0.00000 
214.04702 1.50275 0.00000 
214.40720 1.50241 0.00000 
214.76738 1.50208 0.00000 
215.12756 1.50175 0.00000 
215.48774 1.50142 0.00000 
215.84792 1.50109 0.00000 
216.20810 1.50076 0.00000 
216.56828 1.50044 0.00000 
216.92846 1.50011 0.00000 
217.28864 1.49979 0.00000 
217.64882 1.49947 0.00000 
218.00900 1.49915 0.00000 
218.36918 1.49884 0.00000 
218.72936 1.49852 0.00000 
219.08954 1.49821 0.00000 
219.44972 1.49790 0.00000 
219.80990 1.49758 0.00000 
220.17009 1.49728 0.00000 
220.53027 1.49697 0.00000 
220.89045 1.49666 0.00000 
221.25063 1.49636 0.00000 
221.61081 1.49605 0.00000 
221.97099 1.49575 0.00000 
222.33117 1.49545 0.00000 
222.69135 1.49515 0.00000 
223.05153 1.49486 0.00000 
223.41171 1.49456 0.00000 
223.77189 1.49427 0.00000 
224.13207 1.49397 0.00000 
224.49225 1.49368 0.00000 
224.85243 1.49339 0.00000 
225.21261 1.49310 0.00000 
225.57279 1.49281 0.00000 
225.93297 1.49253 0.00000 
226.29315 1.49224 0.00000 
226.65333 1.49196 0.00000 
227.01351 1.49168 0.00000 
227.37369 1.49140 0.00000 
227.73387 1.49112 0.00000 
228.09405 1.49084 0.00000 
228.45423 1.49056 0.00000 
228.81441 1.49029 0.00000 
229.17459 1.49001 0.00000 
229.53477 1.48974 0.00000 
229.89495 1.48947 0.00000 
230.25513 1.48920 0.00000 
230.61531 1.48893 0.00000 
230.97549 1.48866 0.00000 
231.33567 1.48839 0.00000 
231.69585 1.48813 0.00000 
232.05603 1.48787 0.00000 
232.41621 1.48760 0.00000 
232.77639 1.48734 0.00000 
233.13657 1.48708 0.00000 
233.49675 1.48682 0.00000 
233.85693 1.48656 0.00000 
234.21711 1.48631 0.00000 
234.57729 1.48605 0.00000 
234.93747 1.48580 0.00000 
235.29765 1.48554 0.00000 
235.65783 1.48529 0.00000 
236.01801 1.48504 0.00000 
236.37819 1.48479 0.00000 
236.73837 1.48454 0.00000 
237.09855 1.48429 0.00000 
237.45873 1.48405 0.00000 
237.81891 1.48380 0.00000 
238.17909 1.48356 0.00000 
238.53927 1.48331 0.00000 
238.89945 1.48307 0.00000 
239.25963 1.48283 0.00000 
239.61981 1.48259 0.00000 
239.97999 1.48235 0.00000 
240.34017 1.48212 0.00000 
240.70035 1.48188 0.00000 
241.06053 1.48164 0.00000 
241.42071 1.48141 0.00000 
241.78089 1.48118 0.00000 
242.14107 1.48094 0.00000 
242.50125 1.48071 0.00000 
242.86143 1.48048 0.00000 
243.22161 1.48025 0.00000 
243.58179 1.48002 0.00000 
243.94197 1.47980 0.00000 
244.30215 1.47957 0.00000 
244.66233 1.47935 0.00000 
245.02251 1.47912 0.00000 
245.38269 1.47890 0.00000 
245.74287 1.47868 0.00000 
246.10305 1.47845 0.00000 
246.46323 1.47823 0.00000 
246.82341 1.47801 0.00000 
247.18359 1.47780 0.00000 
247.54377 1.47758 0.00000 
247.90395 1.47736 0.00000 
248.26413 1.47715 0.00000 
248.62431 1.47693 0.00000 
248.98449 1.47672 0.00000 
249.34467 1.47650 0.00000 
249.70485 1.47629 0.00000 
250.06503 1.47608 0.00000 
250.42521 1.47587 0.00000 
250.78539 1.47566 0.00000 
251.14557 1.47545 0.00000 
251.50575 1.47525 0.00000 
251.86593 1.47504 0.00000 
252.22611 1.47484 0.00000 
252.58629 1.47463 0.00000 
252.94647 1.47443 0.00000 
253.30665 1.47422 0.00000 
253.66683 1.47402 0.00000 
254.02701 1.47382 0.00000 
254.38719 1.47362 0.00000 
254.74737 1.47342 0.00000 
255.10755 1.47322 0.00000 
255.46773 1.47302 0.00000 
255.82791 1.47283 0.00000 
256.18809 1.47263 0.00000 
256.54827 1.47243 0.00000 
256.90845 1.47224 0.00000 
257.26863 1.47205 0.00000 
257.62881 1.47185 0.00000 
257.98899 1.47166 0.00000 
258.34917 1.47147 0.00000 
258.70935 1.47128 0.00000 
259.06953 1.47109 0.00000 
259.42971 1.47090 0.00000 
259.78989 1.47071 0.00000 
260.15008 1.47053 0.00000 
260.51026 1.47034 0.00000 
260.87044 1.47015 0.00000 
261.23062 1.46997 0.00000 
261.59080 1.46978 0.00000 
261.95098 1.46960 0.00000 
262.31116 1.46942 0.00000 
262.67134 1.46924 0.00000 
263.03152 1.46905 0.00000 
263.39170 1.46887 0.00000 
263.75188 1.46869 0.00000 
264.11206 1.46851 0.00000 
264.47224 1.46834 0.00000 
264.83242 1.46816 0.00000 
265.19260 1.46798 0.00000 
265.55278 1.46781 0.00000 
265.91296 1.46763 0.00000 
266.27314 1.46746 0.00000 
266.63332 1.46728 0.00000 
266.99350 1.46711 0.00000 
267.35368 1.46694 0.00000 
267.71386 1.46676 0.00000 
268.07404 1.46659 0.00000 
268.43422 1.46642 0.00000 
268.79440 1.46625 0.00000 
269.15458 1.46608 0.00000 
269.51476 1.46591 0.00000 
269.87494 1.46575 0.00000 
270.23512 1.46558 0.00000 
270.59530 1.46541 0.00000 
270.95548 1.46525 0.00000 
271.31566 1.46508 0.00000 
271.67584 1.46492 0.00000 
272.03602 1.46475 0.00000 
272.39620 1.46459 0.00000 
272.75638 1.46443 0.00000 
273.11656 1.46427 0.00000 
273.47674 1.46410 0.00000 
273.83692 1.46394 0.00000 
274.19710 1.46378 0.00000 
274.55728 1.46362 0.00000 
274.91746 1.46347 0.00000 
275.27764 1.46331 0.00000 
275.63782 1.46315 0.00000 
275.99800 1.46299 0.00000 
276.35818 1.46284 0.00000 
276.71836 1.46268 0.00000 
277.07854 1.46253 0.00000 
277.43872 1.46237 0.00000 
277.79890 1.46222 0.00000 
278.15908 1.46206 0.00000 
278.51926 1.46191 0.00000 
278.87944 1.46176 0.00000 
279.23962 1.46161 0.00000 
279.59980 1.46146 0.00000 
279.95998 1.46131 0.00000 
280.32016 1.46116 0.00000 
280.68034 1.46101 0.00000 
281.04052 1.46086 0.00000 
281.40070 1.46071 0.00000 
281.76088 1.46056 0.00000 
282.12106 1.46042 0.00000 
282.48124 1.46027 0.00000 
282.84142 1.46013 0.00000 
283.20160 1.45998 0.00000 
283.56178 1.45984 0.00000 
283.92196 1.45969 0.00000 
284.28214 1.45955 0.00000 
284.64232 1.45940 0.00000 
285.00250 1.45926 0.00000 
285.36268 1.45912 0.00000 
285.72286 1.45898 0.00000 
286.08304 1.45884 0.00000 
286.44322 1.45870 0.00000 
286.80340 1.45856 0.00000 
287.16358 1.45842 0.00000 
287.52376 1.45828 0.00000 
287.88394 1.45814 0.00000 
288.24412 1.45800 0.00000 
288.60430 1.45787 0.00000 
288.96448 1.45773 0.00000 
289.32466 1.45759 0.00000 
289.68484 1.45746 0.00000 
290.04502 1.45732 0.00000 
290.40520 1.45719 0.00000 
290.76538 1.45705 0.00000 
291.12556 1.45692 0.00000 
291.48574 1.45679 0.00000 
291.84592 1.45665 0.00000 
292.20610 1.45652 0.00000 
292.56628 1.45639 0.00000 
292.92646 1.45626 0.00000 
293.28664 1.45613 0.00000 
293.64682 1.45600 0.00000 
294.00700 1.45587 0.00000 
294.36718 1.45574 0.00000 
294.72736 1.45561 0.00000 
295.08754 1.45548 0.00000 
295.44772 1.45535 0.00000 
295.80790 1.45523 0.00000 
296.16808 1.45510 0.00000 
296.52826 1.45497 0.00000 
296.88844 1.45485 0.00000 
297.24862 1.45472 0.00000 
297.60880 1.45460 0.00000 
297.96898 1.45447 0.00000 
298.32916 1.45435 0.00000 
298.68934 1.45422 0.00000 
299.04952 1.45410 0.00000 
299.40970 1.45398 0.00000 
299.76988 1.45386 0.00000 
300.13007 1.45373 0.00000 
300.49025 1.45361 0.00000 
300.85043 1.45349 0.00000 
301.21061 1.45337 0.00000 
301.57079 1.45325 0.00000 
301.93097 1.45313 0.00000 
302.29115 1.45301 0.00000 
302.65133 1.45289 0.00000 
303.01151 1.45277 0.00000 
303.37169 1.45266 0.00000 
303.73187 1.45254 0.00000 
304.09205 1.45242 0.00000 
304.45223 1.45230 0.00000 
304.81241 1.45219 0.00000 
305.17259 1.45207 0.00000 
305.53277 1.45196 0.00000 
305.89295 1.45184 0.00000 
306.25313 1.45173 0.00000 
306.61331 1.45161 0.00000 
306.97349 1.45150 0.00000 
307.33367 1.45138 0.00000 
307.69385 1.45127 0.00000 
308.05403 1.45116 0.00000 
308.41421 1.45104 0.00000 
308.77439 1.45093 0.00000 
309.13457 1.45082 0.00000 
309.49475 1.45071 0.00000 
309.85493 1.45060 0.00000 
310.21511 1.45049 0.00000 
310.57529 1.45038 0.00000 
310.93547 1.45027 0.00000 
311.29565 1.45016 0.00000 
311.65583 1.45005 0.00000 
312.01601 1.44994 0.00000 
312.37619 1.44983 0.00000 
312.73637 1.44973 0.00000 
313.09655 1.44962 0.00000 
313.45673 1.44951 0.00000 
313.81691 1.44940 0.00000 
314.17709 1.44930 0.00000 
314.53727 1.44919 0.00000 
314.89745 1.44909 0.00000 
315.25763 1.44898 0.00000 
315.61781 1.44888 0.00000 
315.97799 1.44877 0.00000 
316.33817 1.44867 0.00000 
316.69835 1.44856 0.00000 
317.05853 1.44846 0.00000 
317.41871 1.44836 0.00000 
317.77889 1.44825 0.00000 
318.13907 1.44815 0.00000 
318.49925 1.44805 0.00000 
318.85943 1.44795 0.00000 
319.21961 1.44785 0.00000 
319.57979 1.44775 0.00000 
319.93997 1.44765 0.00000 
320.30015 1.44755 0.00000 
320.66033 1.44745 0.00000 
321.02051 1.44735 0.00000 
321.38069 1.44725 0.00000 
321.74087 1.44715 0.00000 
322.10105 1.44705 0.00000 
322.46123 1.44695 0.00000 
322.82141 1.44685 0.00000 
323.18159 1.44675 0.00000 
323.54177 1.44666 0.00000 
323.90195 1.44656 0.00000 
324.26213 1.44646 0.00000 
324.62231 1.44637 0.00000 
324.98249 1.44627 0.00000 
325.34267 1.44618 0.00000 
325.70285 1.44608 0.00000 
326.06303 1.44598 0.00000 
326.42321 1.44589 0.00000 
326.78339 1.44580 0.00000 
327.14357 1.44570 0.00000 
327.50375 1.44561 0.00000 
327.86393 1.44551 0.00000 
328.22411 1.44542 0.00000 
328.58429 1.44533 0.00000 
328.94447 1.44523 0.00000 
329.30465 1.44514 0.00000 
329.66483 1.44505 0.00000 
330.02501 1.44496 0.00000 
330.38519 1.44487 0.00000 
330.74537 1.44478 0.00000 
331.10555 1.44469 0.00000 
331.46573 1.44459 0.00000 
331.82591 1.44450 0.00000 
332.18609 1.44441 0.00000 
332.54627 1.44432 0.00000 
332.90645 1.44424 0.00000 
333.26663 1.44415 0.00000 
333.62681 1.44406 0.00000 
333.98699 1.44397 0.00000 
334.34717 1.44388 0.00000 
334.70735 1.44379 0.00000 
335.06753 1.44371 0.00000 
335.42771 1.44362 0.00000 
335.78789 1.44353 0.00000 
336.14807 1.44344 0.00000 
336.50825 1.44336 0.00000 
336.86843 1.44327 0.00000 
337.22861 1.44319 0.00000 
337.58879 1.44310 0.00000 
337.94897 1.44301 0.00000 
338.30915 1.44293 0.00000 
338.66933 1.44284 0.00000 
339.02951 1.44276 0.00000 
339.38969 1.44268 0.00000 
339.74987 1.44259 0.00000 
340.11006 1.44251 0.00000 
340.47024 1.44242 0.00000 
340.83042 1.44234 0.00000 
341.19060 1.44226 0.00000 
341.55078 1.44217 0.00000 
341.91096 1.44209 0.00000 
342.27114 1.44201 0.00000 
342.63132 1.44193 0.00000 
342.99150 1.44185 0.00000 
343.35168 1.44176 0.00000 
343.71186 1.44168 0.00000 
344.07204 1.44160 0.00000 
344.43222 1.44152 0.00000 
344.79240 1.44144 0.00000 
345.15258 1.44136 0.00000 
345.51276 1.44128 0.00000 
345.87294 1.44120 0.00000 
346.23312 1.44112 0.00000 
346.59330 1.44104 0.00000 
346.95348 1.44096 0.00000 
347.31366 1.44089 0.00000 
347.67384 1.44081 0.00000 
348.03402 1.44073 0.00000 
348.39420 1.44065 0.00000 
348.75438 1.44057 0.00000 
349.11456 1.44050 0.00000 
349.47474 1.44042 0.00000 
349.83492 1.44034 0.00000 
350.19510 1.44026 0.00000 
350.55528 1.44019 0.00000 
350.91546 1.44011 0.00000 
351.27564 1.44004 0.00000 
351.63582 1.43996 0.00000 
351.99600 1.43988 0.00000 
352.35618 1.43981 0.00000 
352.71636 1.43973 0.00000 
353.07654 1.43966 0.00000 
353.43672 1.43958 0.00000 
353.79690 1.43951 0.00000 
354.15708 1.43944 0.00000 
354.51726 1.43936 0.00000 
354.87744 1.43929 0.00000 
355.23762 1.43921 0.00000 
355.59780 1.43914 0.00000 
355.95798 1.43907 0.00000 
356.31816 1.43899 0.00000 
356.67834 1.43892 0.00000 
357.03852 1.43885 0.00000 
357.39870 1.43878 0.00000 
357.75888 1.43871 0.00000 
358.11906 1.43863 0.00000 
358.47924 1.43856 0.00000 
358.83942 1.43849 0.00000 
359.19960 1.43842 0.00000 
359.55978 1.43835 0.00000 
359.91996 1.43828 0.00000 
360.28014 1.43821 0.00000 
360.64032 1.43814 0.00000 
361.00050 1.43807 0.00000 
361.36068 1.43800 0.00000 
361.72086 1.43793 0.00000 
362.08104 1.43786 0.00000 
362.44122 1.43779 0.00000 
362.80140 1.43772 0.00000 
363.16158 1.43765 0.00000 
363.52176 1.43758 0.00000 
363.88194 1.43751 0.00000 
364.24212 1.43745 0.00000 
364.60230 1.43738 0.00000 
364.96248 1.43731 0.00000 
365.32266 1.43724 0.00000 
365.68284 1.43717 0.00000 
366.04302 1.43711 0.00000 
366.40320 1.43704 0.00000 
366.76338 1.43697 0.00000 
367.12356 1.43691 0.00000 
367.48374 1.43684 0.00000 
367.84392 1.43677 0.00000 
368.20410 1.43671 0.00000 
368.56428 1.43664 0.00000 
368.92446 1.43658 0.00000 
369.28464 1.43651 0.00000 
369.64482 1.43645 0.00000 
370.00500 1.43638 0.00000 
370.36518 1.43632 0.00000 
370.72536 1.43625 0.00000 
371.08554 1.43619 0.00000 
371.44572 1.43612 0.00000 
371.80590 1.43606 0.00000 
372.16608 1.43599 0.00000 
372.52626 1.43593 0.00000 
372.88644 1.43587 0.00000 
373.24662 1.43580 0.00000 
373.60680 1.43574 0.00000 
373.96698 1.43568 0.00000 
374.32716 1.43561 0.00000 
374.68734 1.43555 0.00000 
375.04752 1.43549 0.00000 
375.40770 1.43543 0.00000 
375.76788 1.43537 0.00000 
376.12806 1.43530 0.00000 
376.48824 1.43524 0.00000 
376.84842 1.43518 0.00000 
377.20860 1.43512 0.00000 
377.56878 1.43506 0.00000 
377.92896 1.43500 0.00000 
378.28914 1.43494 0.00000 
378.64932 1.43487 0.00000 
379.00950 1.43481 0.00000 
379.36968 1.43475 0.00000 
379.72986 1.43469 0.00000 
380.09005 1.43463 0.00000 
380.45023 1.43457 0.00000 
380.81041 1.43451 0.00000 
381.17059 1.43445 0.00000 
381.53077 1.43439 0.00000 
381.89095 1.43434 0.00000 
382.25113 1.43428 0.00000 
382.61131 1.43422 0.00000 
382.97149 1.43416 0.00000 
383.33167 1.43410 0.00000 
383.69185 1.43404 0.00000 
384.05203 1.43398 0.00000 
384.41221 1.43393 0.00000 
384.77239 1.43387 0.00000 
385.13257 1.43381 0.00000 
385.49275 1.43375 0.00000 
385.85293 1.43370 0.00000 
386.21311 1.43364 0.00000 
386.57329 1.43358 0.00000 
386.93347 1.43352 0.00000 
387.29365 1.43347 0.00000 
387.65383 1.43341 0.00000 
388.01401 1.43335 0.00000 
388.37419 1.43330 0.00000 
388.73437 1.43324 0.00000 
389.09455 1.43319 0.00000 
389.45473 1.43313 0.00000 
389.81491 1.43307 0.00000 
390.17509 1.43302 0.00000 
390.53527 1.43296 0.00000 
390.89545 1.43291 0.00000 
391.25563 1.43285 0.00000 
391.61581 1.43280 0.00000 
391.97599 1.43274 0.00000 
392.33617 1.43269 0.00000 
392.69635 1.43263 0.00000 
393.05653 1.43258 0.00000 
393.41671 1.43253 0.00000 
393.77689 1.43247 0.00000 
394.13707 1.43242 0.00000 
394.49725 1.43236 0.00000 
394.85743 1.43231 0.00000 
395.21761 1.43226 0.00000 
395.57779 1.43220 0.00000 
395.93797 1.43215 0.00000 
396.29815 1.43210 0.00000 
396.65833 1.43205 0.00000 
397.01851 1.43199 0.00000 
397.37869 1.43194 0.00000 
397.73887 1.43189 0.00000 
398.09905 1.43184 0.00000 
398.45923 1.43178 0.00000 
398.81941 1.43173 0.00000 
399.17959 1.43168 0.00000 
399.53977 1.43163 0.00000 
399.89995 1.43158 0.00000 
400.26013 1.43153 0.00000 
400.62031 1.43147 0.00000 
400.98049 1.43142 0.00000 
401.34067 1.43137 0.00000 
401.70085 1.43132 0.00000 
402.06103 1.43127 0.00000 
402.42121 1.43122 0.00000 
402.78139 1.43117 0.00000 
403.14157 1.43112 0.00000 
403.50175 1.43107 0.00000 
403.86193 1.43102 0.00000 
404.22211 1.43097 0.00000 
404.58229 1.43092 0.00000 
404.94247 1.43087 0.00000 
405.30265 1.43082 0.00000 
405.66283 1.43077 0.00000 
406.02301 1.43072 0.00000 
406.38319 1.43067 0.00000 
406.74337 1.43062 0.00000 
407.10355 1.43057 0.00000 
407.46373 1.43053 0.00000 
407.82391 1.43048 0.00000 
408.18409 1.43043 0.00000 
408.54427 1.43038 0.00000 
408.90445 1.43033 0.00000 
409.26463 1.43028 0.00000 
409.62481 1.43024 0.00000 
409.98499 1.43019 0.00000 
410.34517 1.43014 0.00000 
410.70535 1.43009 0.00000 
411.06553 1.43005 0.00000 
411.42571 1.43000 0.00000 
411.78589 1.42995 0.00000 
412.14607 1.42990 0.00000 
412.50625 1.42986 0.00000 
412.86643 1.42981 0.00000 
413.22661 1.42976 0.00000 
413.58679 1.42972 0.00000 
413.94697 1.42967 0.00000 
414.30715 1.42962 0.00000 
414.66733 1.42958 0.00000 
415.02751 1.42953 0.00000 
415.38769 1.42949 0.00000 
415.74787 1.42944 0.00000 
416.10805 1.42939 0.00000 
416.46823 1.42935 0.00000 
416.82841 1.42930 0.00000 
417.18859 1.42926 0.00000 
417.54877 1.42921 0.00000 
417.90895 1.42917 0.00000 
418.26913 1.42912 0.00000 
418.62931 1.42908 0.00000 
418.98949 1.42903 0.00000 
419.34967 1.42899 0.00000 
419.70985 1.42894 0.00000 
420.07004 1.42890 0.00000 
420.43022 1.42885 0.00000 
420.79040 1.42881 0.00000 
421.15058 1.42877 0.00000 
421.51076 1.42872 0.00000 
421.87094 1.42868 0.00000 
422.23112 1.42863 0.00000 
422.59130 1.42859 0.00000 
422.95148 1.42855 0.00000 
423.31166 1.42850 0.00000 
423.67184 1.42846 0.00000 
424.03202 1.42842 0.00000 
424.39220 1.42837 0.00000 
424.75238 1.42833 0.00000 
425.11256 1.42829 0.00000 
425.47274 1.42824 0.00000 
425.83292 1.42820 0.00000 
426.19310 1.42816 0.00000 
426.55328 1.42812 0.00000 
426.91346 1.42807 0.00000 
427.27364 1.42803 0.00000 
427.63382 1.42799 0.00000 
427.99400 1.42795 0.00000 
428.35418 1.42791 0.00000 
428.71436 1.42786 0.00000 
429.07454 1.42782 0.00000 
429.43472 1.42778 0.00000 
429.79490 1.42774 0.00000 
430.15508 1.42770 0.00000 
430.51526 1.42766 0.00000 
430.87544 1.42762 0.00000 
431.23562 1.42757 0.00000 
431.59580 1.42753 0.00000 
431.95598 1.42749 0.00000 
432.31616 1.42745 0.00000 
432.67634 1.42741 0.00000 
433.03652 1.42737 0.00000 
433.39670 1.42733 0.00000 
433.75688 1.42729 0.00000 
434.11706 1.42725 0.00000 
434.47724 1.42721 0.00000 
434.83742 1.42717 0.00000 
435.19760 1.42713 0.00000 
435.55778 1.42709 0.00000 
435.91796 1.42705 0.00000 
436.27814 1.42701 0.00000 
436.63832 1.42697 0.00000 
436.99850 1.42693 0.00000 
437.35868 1.42689 0.00000 
437.71886 1.42685 0.00000 
438.07904 1.42681 0.00000 
438.43922 1.42677 0.00000 
438.79940 1.42673 0.00000 
439.15958 1.42670 0.00000 
439.51976 1.42666 0.00000 
439.87994 1.42662 0.00000 
440.24012 1.42658 0.00000 
440.60030 1.42654 0.00000 
440.96048 1.42650 0.00000 
441.32066 1.42646 0.00000 
441.68084 1.42643 0.00000 
442.04102 1.42639 0.00000 
442.40120 1.42635 0.00000 
442.76138 1.42631 0.00000 
443.12156 1.42627 0.00000 
443.48174 1.42624 0.00000 
443.84192 1.42620 0.00000 
444.20210 1.42616 0.00000 
444.56228 1.42612 0.00000 
444.92246 1.42609 0.00000 
445.28264 1.42605 0.00000 
445.64282 1.42601 0.00000 
446.00300 1.42597 0.00000 
446.36318 1.42594 0.00000 
446.72336 1.42590 0.00000 
447.08354 1.42586 0.00000 
447.44372 1.42583 0.00000 
447.80390 1.42579 0.00000 
448.16408 1.42575 0.00000 
448.52426 1.42572 0.00000 
448.88444 1.42568 0.00000 
449.24462 1.42564 0.00000 
449.60480 1.42561 0.00000 
449.96498 1.42557 0.00000 
450.32516 1.42554 0.00000 
450.68534 1.42550 0.00000 
451.04552 1.42546 0.00000 
451.40570 1.42543 0.00000 
451.76588 1.42539 0.00000 
452.12606 1.42536 0.00000 
452.48624 1.42532 0.00000 
452.84642 1.42529 0.00000 
453.20660 1.42525 0.00000 
453.56678 1.42521 0.00000 
453.92696 1.42518 0.00000 
454.28714 1.42514 0.00000 
454.64732 1.42511 0.00000 
455.00750 1.42507 0.00000 
455.36768 1.42504 0.00000 
455.72786 1.42500 0.00000 
456.08804 1.42497 0.00000 
456.44822 1.42493 0.00000 
456.80840 1.42490 0.00000 
457.16858 1.42487 0.00000 
457.52876 1.42483 0.00000 
457.88894 1.42480 0.00000 
458.24912 1.42476 0.00000 
458.60930 1.42473 0.00000 
458.96948 1.42469 0.00000 
459.32966 1.42466 0.00000 
459.68984 1.42463 0.00000 
460.05003 1.42459 0.00000 
460.41021 1.42456 0.00000 
460.77039 1.42453 0.00000 
461.13057 1.42449 0.00000 
461.49075 1.42446 0.00000 
461.85093 1.42442 0.00000 
462.21111 1.42439 0.00000 
462.57129 1.42436 0.00000 
462.93147 1.42432 0.00000 
463.29165 1.42429 0.00000 
463.65183 1.42426 0.00000 
464.01201 1.42423 0.00000 
464.37219 1.42419 0.00000 
464.73237 1.42416 0.00000 
465.09255 1.42413 0.00000 
465.45273 1.42409 0.00000 
465.81291 1.42406 0.00000 
466.17309 1.42403 0.00000 
466.53327 1.42400 0.00000 
466.89345 1.42396 0.00000 
467.25363 1.42393 0.00000 
467.61381 1.42390 0.00000 
467.97399 1.42387 0.00000 
468.33417 1.42384 0.00000 
468.69435 1.42380 0.00000 
469.05453 1.42377 0.00000 
469.41471 1.42374 0.00000 
469.77489 1.42371 0.00000 
470.13507 1.42368 0.00000 
470.49525 1.42364 0.00000 
470.85543 1.42361 0.00000 
471.21561 1.42358 0.00000 
471.57579 1.42355 0.00000 
471.93597 1.42352 0.00000 
472.29615 1.42349 0.00000 
472.65633 1.42346 0.00000 
473.01651 1.42343 0.00000 
473.37669 1.42339 0.00000 
473.73687 1.42336 0.00000 
474.09705 1.42333 0.00000 
474.45723 1.42330 0.00000 
474.81741 1.42327 0.00000 
475.17759 1.42324 0.00000 
475.53777 1.42321 0.00000 
475.89795 1.42318 0.00000 
476.25813 1.42315 0.00000 
476.61831 1.42312 0.00000 
476.97849 1.42309 0.00000 
477.33867 1.42306 0.00000 
477.69885 1.42303 0.00000 
478.05903 1.42300 0.00000 
478.41921 1.42297 0.00000 
478.77939 1.42294 0.00000 
479.13957 1.42291 0.00000 
479.49975 1.42288 0.00000 
479.85993 1.42285 0.00000 
480.22011 1.42282 0.00000 
480.58029 1.42279 0.00000 
480.94047 1.42276 0.00000 
481.30065 1.42273 0.00000 
481.66083 1.42270 0.00000 
482.02101 1.42267 0.00000 
482.38119 1.42264 0.00000 
482.74137 1.42261 0.00000 
483.10155 1.42258 0.00000 
483.46173 1.42255 0.00000 
483.82191 1.42252 0.00000 
484.18209 1.42249 0.00000 
484.54227 1.42246 0.00000 
484.90245 1.42244 0.00000 
485.26263 1.42241 0.00000 
485.62281 1.42238 0.00000 
485.98299 1.42235 0.00000 
486.34317 1.42232 0.00000 
486.70335 1.42229 0.00000 
487.06353 1.42226 0.00000 
487.42371 1.42224 0.00000 
487.78389 1.42221 0.00000 
488.14407 1.42218 0.00000 
488.50425 1.42215 0.00000 
488.86443 1.42212 0.00000 
489.22461 1.42209 0.00000 
489.58479 1.42207 0.00000 
489.94497 1.42204 0.00000 
490.30515 1.42201 0.00000 
490.66533 1.42198 0.00000 
491.02551 1.42195 0.00000 
491.38569 1.42193 0.00000 
491.74587 1.42190 0.00000 
492.10605 1.42187 0.00000 
492.46623 1.42184 0.00000 
492.82641 1.42182 0.00000 
493.18659 1.42179 0.00000 
493.54677 1.42176 0.00000 
493.90695 1.42173 0.00000 
494.26713 1.42171 0.00000 
494.62731 1.42168 0.00000 
494.98749 1.42165 0.00000 
495.34767 1.42162 0.00000 
495.70785 1.42160 0.00000 
496.06803 1.42157 0.00000 
496.42821 1.42154 0.00000 
496.78839 1.42152 0.00000 
497.14857 1.42149 0.00000 
497.50875 1.42146 0.00000 
497.86893 1.42144 0.00000 
498.22911 1.42141 0.00000 
498.58929 1.42138 0.00000 
498.94947 1.42136 0.00000 
499.30965 1.42133 0.00000 
499.66983 1.42130 0.00000 
500.03002 1.42128 0.00000 
500.39020 1.42125 0.00000 
500.75038 1.42123 0.00000 
501.11056 1.42120 0.00000 
501.47074 1.42117 0.00000 
501.83092 1.42115 0.00000 
502.19110 1.42112 0.00000 
502.55128 1.42109 0.00000 
502.91146 1.42107 0.00000 
503.27164 1.42104 0.00000 
503.63182 1.42102 0.00000 
503.99200 1.42099 0.00000 
504.35218 1.42097 0.00000 
504.71236 1.42094 0.00000 
505.07254 1.42091 0.00000 
505.43272 1.42089 0.00000 
505.79290 1.42086 0.00000 
506.15308 1.42084 0.00000 
506.51326 1.42081 0.00000 
506.87344 1.42079 0.00000 
507.23362 1.42076 0.00000 
507.59380 1.42074 0.00000 
507.95398 1.42071 0.00000 
508.31416 1.42069 0.00000 
508.67434 1.42066 0.00000 
509.03452 1.42064 0.00000 
509.39470 1.42061 0.00000 
509.75488 1.42059 0.00000 
510.11506 1.42056 0.00000 
510.47524 1.42054 0.00000 
510.83542 1.42051 0.00000 
511.19560 1.42049 0.00000 
511.55578 1.42046 0.00000 
511.91596 1.42044 0.00000 
512.27614 1.42041 0.00000 
512.63632 1.42039 0.00000 
512.99650 1.42037 0.00000 
513.35668 1.42034 0.00000 
513.71686 1.42032 0.00000 
514.07704 1.42029 0.00000 
514.43722 1.42027 0.00000 
514.79740 1.42024 0.00000 
515.15758 1.42022 0.00000 
515.51776 1.42020 0.00000 
515.87794 1.42017 0.00000 
516.23812 1.42015 0.00000 
516.59830 1.42012 0.00000 
516.95848 1.42010 0.00000 
517.31866 1.42008 0.00000 
517.67884 1.42005 0.00000 
518.03902 1.42003 0.00000 
518.39920 1.42001 0.00000 
518.75938 1.41998 0.00000 
519.11956 1.41996 0.00000 
519.47974 1.41993 0.00000 
519.83992 1.41991 0.00000 
520.20010 1.41989 0.00000 
520.56028 1.41986 0.00000 
520.92046 1.41984 0.00000 
521.28064 1.41982 0.00000 
521.64082 1.41979 0.00000 
522.00100 1.41977 0.00000 
522.36118 1.41975 0.00000 
522.72136 1.41973 0.00000 
523.08154 1.41970 0.00000 
523.44172 1.41968 0.00000 
523.80190 1.41966 0.00000 
524.16208 1.41963 0.00000 
524.52226 1.41961 0.00000 
524.88244 1.41959 0.00000 
525.24262 1.41957 0.00000 
525.60280 1.41954 0.00000 
525.96298 1.41952 0.00000 
526.32316 1.41950 0.00000 
526.68334 1.41947 0.00000 
527.04352 1.41945 0.00000 
527.40370 1.41943 0.00000 
527.76388 1.41941 0.00000 
528.12406 1.41938 0.00000 
528.48424 1.41936 0.00000 
528.84442 1.41934 0.00000 
529.20460 1.41932 0.00000 
529.56478 1.41930 0.00000 
529.92496 1.41927 0.00000 
530.28514 1.41925 0.00000 
530.64532 1.41923 0.00000 
531.00550 1.41921 0.00000 
531.36568 1.41919 0.00000 
531.72586 1.41916 0.00000 
532.08604 1.41914 0.00000 
532.44622 1.41912 0.00000 
532.80640 1.41910 0.00000 
533.16658 1.41908 0.00000 
533.52676 1.41905 0.00000 
533.88694 1.41903 0.00000 
534.24712 1.41901 0.00000 
534.60730 1.41899 0.00000 
534.96748 1.41897 0.00000 
535.32766 1.41895 0.00000 
535.68784 1.41893 0.00000 
536.04802 1.41890 0.00000 
536.40820 1.41888 0.00000 
536.76838 1.41886 0.00000 
537.12856 1.41884 0.00000 
537.48874 1.41882 0.00000 
537.84892 1.41880 0.00000 
538.20910 1.41878 0.00000 
538.56928 1.41876 0.00000 
538.92946 1.41873 0.00000 
539.28964 1.41871 0.00000 
539.64982 1.41869 0.00000 
540.01001 1.41867 0.00000 
540.37019 1.41865 0.00000 
540.73037 1.41863 0.00000 
541.09055 1.41861 0.00000 
541.45073 1.41859 0.00000 
541.81091 1.41857 0.00000 
542.17109 1.41855 0.00000 
542.53127 1.41853 0.00000 
542.89145 1.41851 0.00000 
543.25163 1.41849 0.00000 
543.61181 1.41846 0.00000 
543.97199 1.41844 0.00000 
544.33217 1.41842 0.00000 
544.69235 1.41840 0.00000 
545.05253 1.41838 0.00000 
545.41271 1.41836 0.00000 
545.77289 1.41834 0.00000 
546.13307 1.41832 0.00000 
546.49325 1.41830 0.00000 
546.85343 1.41828 0.00000 
547.21361 1.41826 0.00000 
547.57379 1.41824 0.00000 
547.93397 1.41822 0.00000 
548.29415 1.41820 0.00000 
548.65433 1.41818 0.00000 
549.01451 1.41816 0.00000 
549.37469 1.41814 0.00000 
549.73487 1.41812 0.00000 
550.09505 1.41810 0.00000 
550.45523 1.41808 0.00000 
550.81541 1.41806 0.00000 
551.17559 1.41804 0.00000 
551.53577 1.41802 0.00000 
551.89595 1.41800 0.00000 
552.25613 1.41798 0.00000 
552.61631 1.41796 0.00000 
552.97649 1.41795 0.00000 
553.33667 1.41793 0.00000 
553.69685 1.41791 0.00000 
554.05703 1.41789 0.00000 
554.41721 1.41787 0.00000 
554.77739 1.41785 0.00000 
555.13757 1.41783 0.00000 
555.49775 1.41781 0.00000 
555.85793 1.41779 0.00000 
556.21811 1.41777 0.00000 
556.57829 1.41775 0.00000 
556.93847 1.41773 0.00000 
557.29865 1.41771 0.00000 
557.65883 1.41770 0.00000 
558.01901 1.41768 0.00000 
558.37919 1.41766 0.00000 
558.73937 1.41764 0.00000 
559.09955 1.41762 0.00000 
559.45973 1.41760 0.00000 
559.81991 1.41758 0.00000 
560.18009 1.41756 0.00000 
560.54027 1.41754 0.00000 
560.90045 1.41753 0.00000 
561.26063 1.41751 0.00000 
561.62081 1.41749 0.00000 
561.98099 1.41747 0.00000 
562.34117 1.41745 0.00000 
562.70135 1.41743 0.00000 
563.06153 1.41741 0.00000 
563.42171 1.41740 0.00000 
563.78189 1.41738 0.00000 
564.14207 1.41736 0.00000 
564.50225 1.41734 0.00000 
564.86243 1.41732 0.00000 
565.22261 1.41730 0.00000 
565.58279 1.41729 0.00000 
565.94297 1.41727 0.00000 
566.30315 1.41725 0.00000 
566.66333 1.41723 0.00000 
567.02351 1.41721 0.00000 
567.38369 1.41720 0.00000 
567.74387 1.41718 0.00000 
568.10405 1.41716 0.00000 
568.46423 1.41714 0.00000 
568.82441 1.41712 0.00000 
569.18459 1.41711 0.00000 
569.54477 1.41709 0.00000 
569.90495 1.41707 0.00000 
570.26513 1.41705 0.00000 
570.62531 1.41704 0.00000 
570.98549 1.41702 0.00000 
571.34567 1.41700 0.00000 
571.70585 1.41698 0.00000 
572.06603 1.41696 0.00000 
572.42621 1.41695 0.00000 
572.78639 1.41693 0.00000 
573.14657 1.41691 0.00000 
573.50675 1.41689 0.00000 
573.86693 1.41688 0.00000 
574.22711 1.41686 0.00000 
574.58729 1.41684 0.00000 
574.94747 1.41682 0.00000 
575.30765 1.41681 0.00000 
575.66783 1.41679 0.00000 
576.02801 1.41677 0.00000 
576.38819 1.41676 0.00000 
576.74837 1.41674 0.00000 
577.10855 1.41672 0.00000 
577.46873 1.41670 0.00000 
577.82891 1.41669 0.00000 
578.18909 1.41667 0.00000 
578.54927 1.41665 0.00000 
578.90945 1.41664 0.00000 
579.26963 1.41662 0.00000 
579.62981 1.41660 0.00000 
579.98999 1.41659 0.00000 
580.35018 1.41657 0.00000 
580.71036 1.41655 0.00000 
581.07054 1.41654 0.00000 
581.43072 1.41652 0.00000 
581.79090 1.41650 0.00000 
582.15108 1.41648 0.00000 
582.51126 1.41647 0.00000 
582.87144 1.41645 0.00000 
583.23162 1.41643 0.00000 
583.59180 1.41642 0.00000 
583.95198 1.41640 0.00000 
584.31216 1.41639 0.00000 
584.67234 1.41637 0.00000 
585.03252 1.41635 0.00000 
585.39270 1.41634 0.00000 
585.75288 1.41632 0.00000 
586.11306 1.41630 0.00000 
586.47324 1.41629 0.00000 
586.83342 1.41627 0.00000 
587.19360 1.41625 0.00000 
587.55378 1.41624 0.00000 
587.91396 1.41622 0.00000 
588.27414 1.41621 0.00000 
588.63432 1.41619 0.00000 
588.99450 1.41617 0.00000 
589.35468 1.41616 0.00000 
589.71486 1.41614 0.00000 
590.07504 1.41613 0.00000 
590.43522 1.41611 0.00000 
590.79540 1.41609 0.00000 
591.15558 1.41608 0.00000 
591.51576 1.41606 0.00000 
591.87594 1.41605 0.00000 
592.23612 1.41603 0.00000 
592.59630 1.41601 0.00000 
592.95648 1.41600 0.00000 
593.31666 1.41598 0.00000 
593.67684 1.41597 0.00000 
594.03702 1.41595 0.00000 
594.39720 1.41593 0.00000 
594.75738 1.41592 0.00000 
595.11756 1.41590 0.00000 
595.47774 1.41589 0.00000 
595.83792 1.41587 0.00000 
596.19810 1.41586 0.00000 
596.55828 1.41584 0.00000 
596.91846 1.41583 0.00000 
597.27864 1.41581 0.00000 
597.63882 1.41579 0.00000 
597.99900 1.41578 0.00000 
598.35918 1.41576 0.00000 
598.71936 1.41575 0.00000 
599.07954 1.41573 0.00000 
599.43972 1.41572 0.00000 
599.79990 1.41570 0.00000 
600.16008 1.41569 0.00000 
600.52026 1.41567 0.00000 
600.88044 1.41566 0.00000 
601.24062 1.41564 0.00000 
601.60080 1.41563 0.00000 
601.96098 1.41561 0.00000 
602.32116 1.41560 0.00000 
602.68134 1.41558 0.00000 
603.04152 1.41557 0.00000 
603.40170 1.41555 0.00000 
603.76188 1.41554 0.00000 
604.12206 1.41552 0.00000 
604.48224 1.41551 0.00000 
604.84242 1.41549 0.00000 
605.20260 1.41548 0.00000 
605.56278 1.41546 0.00000 
605.92296 1.41545 0.00000 
606.28314 1.41543 0.00000 
606.64332 1.41542 0.00000 
607.00350 1.41540 0.00000 
607.36368 1.41539 0.00000 
607.72386 1.41537 0.00000 
608.08404 1.41536 0.00000 
608.44422 1.41534 0.00000 
608.80440 1.41533 0.00000 
609.16458 1.41532 0.00000 
609.52476 1.41530 0.00000 
609.88494 1.41529 0.00000 
610.24512 1.41527 0.00000 
610.60530 1.41526 0.00000 
610.96548 1.41524 0.00000 
611.32566 1.41523 0.00000 
611.68584 1.41521 0.00000 
612.04602 1.41520 0.00000 
612.40620 1.41519 0.00000 
612.76638 1.41517 0.00000 
613.12656 1.41516 0.00000 
613.48674 1.41514 0.00000 
613.84692 1.41513 0.00000 
614.20710 1.41511 0.00000 
614.56728 1.41510 0.00000 
614.92746 1.41509 0.00000 
615.28764 1.41507 0.00000 
615.64782 1.41506 0.00000 
616.00800 1.41504 0.00000 
616.36818 1.41503 0.00000 
616.72836 1.41502 0.00000 
617.08854 1.41500 0.00000 
617.44872 1.41499 0.00000 
617.80890 1.41497 0.00000 
618.16908 1.41496 0.00000 
618.52926 1.41495 0.00000 
618.88944 1.41493 0.00000 
619.24962 1.41492 0.00000 
619.60980 1.41490 0.00000 
619.96998 1.41489 0.00000 
620.33017 1.41488 0.00000 
620.69035 1.41486 0.00000 
621.05053 1.41485 0.00000 
621.41071 1.41483 0.00000 
621.77089 1.41482 0.00000 
622.13107 1.41481 0.00000 
622.49125 1.41479 0.00000 
622.85143 1.41478 0.00000 
623.21161 1.41477 0.00000 
623.57179 1.41475 0.00000 
623.93197 1.41474 0.00000 
624.29215 1.41473 0.00000 
624.65233 1.41471 0.00000 
625.01251 1.41470 0.00000 
625.37269 1.41469 0.00000 
625.73287 1.41467 0.00000 
626.09305 1.41466 0.00000 
626.45323 1.41464 0.00000 
626.81341 1.41463 0.00000 
627.17359 1.41462 0.00000 
627.53377 1.41460 0.00000 
627.89395 1.41459 0.00000 
628.25413 1.41458 0.00000 
628.61431 1.41457 0.00000 
628.97449 1.41455 0.00000 
629.33467 1.41454 0.00000 
629.69485 1.41453 0.00000 
630.05503 1.41451 0.00000 
630.41521 1.41450 0.00000 
630.77539 1.41449 0.00000 
631.13557 1.41447 0.00000 
631.49575 1.41446 0.00000 
631.85593 1.41445 0.00000 
632.21611 1.41443 0.00000 
632.57629 1.41442 0.00000 
632.93647 1.41441 0.00000 
633.29665 1.41439 0.00000 
633.65683 1.41438 0.00000 
634.01701 1.41437 0.00000 
634.37719 1.41436 0.00000 
634.73737 1.41434 0.00000 
635.09755 1.41433 0.00000 
635.45773 1.41432 0.00000 
635.81791 1.41430 0.00000 
636.17809 1.41429 0.00000 
636.53827 1.41428 0.00000 
636.89845 1.41427 0.00000 
637.25863 1.41425 0.00000 
637.61881 1.41424 0.00000 
637.97899 1.41423 0.00000 
638.33917 1.41422 0.00000 
638.69935 1.41420 0.00000 
639.05953 1.41419 0.00000 
639.41971 1.41418 0.00000 
639.77989 1.41416 0.00000 
640.14007 1.41415 0.00000 
640.50025 1.41414 0.00000 
640.86043 1.41413 0.00000 
641.22061 1.41411 0.00000 
641.58079 1.41410 0.00000 
641.94097 1.41409 0.00000 
642.30115 1.41408 0.00000 
642.66133 1.41407 0.00000 
643.02151 1.41405 0.00000 
643.38169 1.41404 0.00000 
643.74187 1.41403 0.00000 
644.10205 1.41402 0.00000 
644.46223 1.41400 0.00000 
644.82241 1.41399 0.00000 
645.18259 1.41398 0.00000 
645.54277 1.41397 0.00000 
645.90295 1.41395 0.00000 
646.26313 1.41394 0.00000 
646.62331 1.41393 0.00000 
646.98349 1.41392 0.00000 
647.34367 1.41391 0.00000 
647.70385 1.41389 0.00000 
648.06403 1.41388 0.00000 
648.42421 1.41387 0.00000 
648.78439 1.41386 0.00000 
649.14457 1.41385 0.00000 
649.50475 1.41383 0.00000 
649.86493 1.41382 0.00000 
650.22511 1.41381 0.00000 
650.58529 1.41380 0.00000 
650.94547 1.41379 0.00000 
651.30565 1.41377 0.00000 
651.66583 1.41376 0.00000 
652.02601 1.41375 0.00000 
652.38619 1.41374 0.00000 
652.74637 1.41373 0.00000 
653.10655 1.41371 0.00000 
653.46673 1.41370 0.00000 
653.82691 1.41369 0.00000 
654.18709 1.41368 0.00000 
654.54727 1.41367 0.00000 
654.90745 1.41366 0.00000 
655.26763 1.41364 0.00000 
655.62781 1.41363 0.00000 
655.98799 1.41362 0.00000 
656.34817 1.41361 0.00000 
656.70835 1.41360 0.00000 
657.06853 1.41359 0.00000 
657.42871 1.41357 0.00000 
657.78889 1.41356 0.00000 
658.14907 1.41355 0.00000 
658.50925 1.41354 0.00000 
658.86943 1.41353 0.00000 
659.22961 1.41352 0.00000 
659.58979 1.41350 0.00000 
659.94997 1.41349 0.00000 
660.31016 1.41348 0.00000 
660.67034 1.41347 0.00000 
661.03052 1.41346 0.00000 
661.39070 1.41345 0.00000 
661.75088 1.41344 0.00000 
662.11106 1.41342 0.00000 
662.47124 1.41341 0.00000 
662.83142 1.41340 0.00000 
663.19160 1.41339 0.00000 
663.55178 1.41338 0.00000 
663.91196 1.41337 0.00000 
664.27214 1.41336 0.00000 
664.63232 1.41335 0.00000 
664.99250 1.41333 0.00000 
665.35268 1.41332 0.00000 
665.71286 1.41331 0.00000 
666.07304 1.41330 0.00000 
666.43322 1.41329 0.00000 
666.79340 1.41328 0.00000 
667.15358 1.41327 0.00000 
667.51376 1.41326 0.00000 
667.87394 1.41325 0.00000 
668.23412 1.41323 0.00000 
668.59430 1.41322 0.00000 
668.95448 1.41321 0.00000 
669.31466 1.41320 0.00000 
669.67484 1.41319 0.00000 
670.03502 1.41318 0.00000 
670.39520 1.41317 0.00000 
670.75538 1.41316 0.00000 
671.11556 1.41315 0.00000 
671.47574 1.41314 0.00000 
671.83592 1.41312 0.00000 
672.19610 1.41311 0.00000 
672.55628 1.41310 0.00000 
672.91646 1.41309 0.00000 
673.27664 1.41308 0.00000 
673.63682 1.41307 0.00000 
673.99700 1.41306 0.00000 
674.35718 1.41305 0.00000 
674.71736 1.41304 0.00000 
675.07754 1.41303 0.00000 
675.43772 1.41302 0.00000 
675.79790 1.41301 0.00000 
676.15808 1.41300 0.00000 
676.51826 1.41299 0.00000 
676.87844 1.41297 0.00000 
677.23862 1.41296 0.00000 
677.59880 1.41295 0.00000 
677.95898 1.41294 0.00000 
678.31916 1.41293 0.00000 
678.67934 1.41292 0.00000 
679.03952 1.41291 0.00000 
679.39970 1.41290 0.00000 
679.75988 1.41289 0.00000 
680.12006 1.41288 0.00000 
680.48024 1.41287 0.00000 
680.84042 1.41286 0.00000 
681.20060 1.41285 0.00000 
681.56078 1.41284 0.00000 
681.92096 1.41283 0.00000 
682.28114 1.41282 0.00000 
682.64132 1.41281 0.00000 
683.00150 1.41280 0.00000 
683.36168 1.41279 0.00000 
683.72186 1.41278 0.00000 
684.08204 1.41277 0.00000 
684.44222 1.41276 0.00000 
684.80240 1.41275 0.00000 
685.16258 1.41273 0.00000 
685.52276 1.41272 0.00000 
685.88294 1.41271 0.00000 
686.24312 1.41270 0.00000 
686.60330 1.41269 0.00000 
686.96348 1.41268 0.00000 
687.32366 1.41267 0.00000 
687.68384 1.41266 0.00000 
688.04402 1.41265 0.00000 
688.40420 1.41264 0.00000 
688.76438 1.41263 0.00000 
689.12456 1.41262 0.00000 
689.48474 1.41261 0.00000 
689.84492 1.41260 0.00000 
690.20510 1.41259 0.00000 
690.56528 1.41258 0.00000 
690.92546 1.41257 0.00000 
691.28564 1.41256 0.00000 
691.64582 1.41255 0.00000 
692.00600 1.41254 0.00000 
692.36618 1.41253 0.00000 
692.72636 1.41252 0.00000 
693.08654 1.41251 0.00000 
693.44672 1.41250 0.00000 
693.80690 1.41249 0.00000 
694.16708 1.41248 0.00000 
694.52726 1.41247 0.00000 
694.88744 1.41246 0.00000 
695.24762 1.41245 0.00000 
695.60780 1.41244 0.00000 
695.96798 1.41243 0.00000 
696.32816 1.41243 0.00000 
696.68834 1.41242 0.00000 
697.04852 1.41241 0.00000 
697.40870 1.41240 0.00000 
697.76888 1.41239 0.00000 
698.12906 1.41238 0.00000 
698.48924 1.41237 0.00000 
698.84942 1.41236 0.00000 
699.20960 1.41235 0.00000 
699.56978 1.41234 0.00000 
699.92996 1.41233 0.00000 
700.29015 1.41232 0.00000 
700.65033 1.41231 0.00000 
701.01051 1.41230 0.00000 
701.37069 1.41229 0.00000 
701.73087 1.41228 0.00000 
702.09105 1.41227 0.00000 
702.45123 1.41226 0.00000 
702.81141 1.41225 0.00000 
703.17159 1.41224 0.00000 
703.53177 1.41223 0.00000 
703.89195 1.41222 0.00000 
704.25213 1.41221 0.00000 
704.61231 1.41220 0.00000 
704.97249 1.41220 0.00000 
705.33267 1.41219 0.00000 
705.69285 1.41218 0.00000 
706.05303 1.41217 0.00000 
706.41321 1.41216 0.00000 
706.77339 1.41215 0.00000 
707.13357 1.41214 0.00000 
707.49375 1.41213 0.00000 
707.85393 1.41212 0.00000 
708.21411 1.41211 0.00000 
708.57429 1.41210 0.00000 
708.93447 1.41209 0.00000 
709.29465 1.41208 0.00000 
709.65483 1.41207 0.00000 
710.01501 1.41207 0.00000 
710.37519 1.41206 0.00000 
710.73537 1.41205 0.00000 
711.09555 1.41204 0.00000 
711.45573 1.41203 0.00000 
711.81591 1.41202 0.00000 
712.17609 1.41201 0.00000 
712.53627 1.41200 0.00000 
712.89645 1.41199 0.00000 
713.25663 1.41198 0.00000 
713.61681 1.41197 0.00000 
713.97699 1.41196 0.00000 
714.33717 1.41196 0.00000 
714.69735 1.41195 0.00000 
715.05753 1.41194 0.00000 
715.41771 1.41193 0.00000 
715.77789 1.41192 0.00000 
716.13807 1.41191 0.00000 
716.49825 1.41190 0.00000 
716.85843 1.41189 0.00000 
717.21861 1.41188 0.00000 
717.57879 1.41188 0.00000 
717.93897 1.41187 0.00000 
718.29915 1.41186 0.00000 
718.65933 1.41185 0.00000 
719.01951 1.41184 0.00000 
719.37969 1.41183 0.00000 
719.73987 1.41182 0.00000 
720.10005 1.41181 0.00000 
720.46023 1.41180 0.00000 
720.82041 1.41180 0.00000 
721.18059 1.41179 0.00000 
721.54077 1.41178 0.00000 
721.90095 1.41177 0.00000 
722.26113 1.41176 0.00000 
722.62131 1.41175 0.00000 
722.98149 1.41174 0.00000 
723.34167 1.41173 0.00000 
723.70185 1.41173 0.00000 
724.06203 1.41172 0.00000 
724.42221 1.41171 0.00000 
724.78239 1.41170 0.00000 
725.14257 1.41169 0.00000 
725.50275 1.41168 0.00000 
725.86293 1.41167 0.00000 
726.22311 1.41167 0.00000 
726.58329 1.41166 0.00000 
726.94347 1.41165 0.00000 
727.30365 1.41164 0.00000 
727.66383 1.41163 0.00000 
728.02401 1.41162 0.00000 
728.38419 1.41161 0.00000 
728.74437 1.41161 0.00000 
729.10455 1.41160 0.00000 
729.46473 1.41159 0.00000 
729.82491 1.41158 0.00000 
730.18509 1.41157 0.00000 
730.54527 1.41156 0.00000 
730.90545 1.41155 0.00000 
731.26563 1.41155 0.00000 
731.62581 1.41154 0.00000 
731.98599 1.41153 0.00000 
732.34617 1.41152 0.00000 
732.70635 1.41151 0.00000 
733.06653 1.41150 0.00000 
733.42671 1.41150 0.00000 
733.78689 1.41149 0.00000 
734.14707 1.41148 0.00000 
734.50725 1.41147 0.00000 
734.86743 1.41146 0.00000 
735.22761 1.41145 0.00000 
735.58779 1.41145 0.00000 
735.94797 1.41144 0.00000 
736.30815 1.41143 0.00000 
736.66833 1.41142 0.00000 
737.02851 1.41141 0.00000 
737.38869 1.41140 0.00000 
737.74887 1.41140 0.00000 
738.10905 1.41139 0.00000 
738.46923 1.41138 0.00000 
738.82941 1.41137 0.00000 
739.18959 1.41136 0.00000 
739.54977 1.41136 0.00000 
739.90995 1.41135 0.00000 
740.27014 1.41134 0.00000 
740.63032 1.41133 0.00000 
740.99050 1.41132 0.00000 
741.35068 1.41132 0.00000 
741.71086 1.41131 0.00000 
742.07104 1.41130 0.00000 
742.43122 1.41129 0.00000 
742.79140 1.41128 0.00000 
743.15158 1.41127 0.00000 
743.51176 1.41127 0.00000 
743.87194 1.41126 0.00000 
744.23212 1.41125 0.00000 
744.59230 1.41124 0.00000 
744.95248 1.41123 0.00000 
745.31266 1.41123 0.00000 
745.67284 1.41122 0.00000 
746.03302 1.41121 0.00000 
746.39320 1.41120 0.00000 
746.75338 1.41120 0.00000 
747.11356 1.41119 0.00000 
747.47374 1.41118 0.00000 
747.83392 1.41117 0.00000 
748.19410 1.41116 0.00000 
748.55428 1.41116 0.00000 
748.91446 1.41115 0.00000 
749.27464 1.41114 0.00000 
749.63482 1.41113 0.00000 
749.99500 1.41112 0.00000 
750.35518 1.41112 0.00000 
750.71536 1.41111 0.00000 
751.07554 1.41110 0.00000 
751.43572 1.41109 0.00000 
751.79590 1.41109 0.00000 
752.15608 1.41108 0.00000 
752.51626 1.41107 0.00000 
752.87644 1.41106 0.00000 
753.23662 1.41105 0.00000 
753.59680 1.41105 0.00000 
753.95698 1.41104 0.00000 
754.31716 1.41103 0.00000 
754.67734 1.41102 0.00000 
755.03752 1.41102 0.00000 
755.39770 1.41101 0.00000 
755.75788 1.41100 0.00000 
756.11806 1.41099 0.00000 
756.47824 1.41099 0.00000 
756.83842 1.41098 0.00000 
757.19860 1.41097 0.00000 
757.55878 1.41096 0.00000 
757.91896 1.41096 0.00000 
758.27914 1.41095 0.00000 
758.63932 1.41094 0.00000 
758.99950 1.41093 0.00000 
759.35968 1.41093 0.00000 
759.71986 1.41092 0.00000 
760.08004 1.41091 0.00000 
760.44022 1.41090 0.00000 
760.80040 1.41090 0.00000 
761.16058 1.41089 0.00000 
761.52076 1.41088 0.00000 
761.88094 1.41087 0.00000 
762.24112 1.41087 0.00000 
762.60130 1.41086 0.00000 
762.96148 1.41085 0.00000 
763.32166 1.41084 0.00000 
763.68184 1.41084 0.00000 
764.04202 1.41083 0.00000 
764.40220 1.41082 0.00000 
764.76238 1.41081 0.00000 
765.12256 1.41081 0.00000 
765.48274 1.41080 0.00000 
765.84292 1.41079 0.00000 
766.20310 1.41078 0.00000 
766.56328 1.41078 0.00000 
766.92346 1.41077 0.00000 
767.28364 1.41076 0.00000 
767.64382 1.41076 0.00000 
768.00400 1.41075 0.00000 
768.36418 1.41074 0.00000 
768.72436 1.41073 0.00000 
769.08454 1.41073 0.00000 
769.44472 1.41072 0.00000 
769.80490 1.41071 0.00000 
770.16508 1.41070 0.00000 
770.52526 1.41070 0.00000 
770.88544 1.41069 0.00000 
771.24562 1.41068 0.00000 
771.60580 1.41068 0.00000 
771.96598 1.41067 0.00000 
772.32616 1.41066 0.00000 
772.68634 1.41065 0.00000 
773.04652 1.41065 0.00000 
773.40670 1.41064 0.00000 
773.76688 1.41063 0.00000 
774.12706 1.41063 0.00000 
774.48724 1.41062 0.00000 
774.84742 1.41061 0.00000 
775.20760 1.41060 0.00000 
775.56778 1.41060 0.00000 
775.92796 1.41059 0.00000 
776.28814 1.41058 0.00000 
776.64832 1.41058 0.00000 
777.00850 1.41057 0.00000 
777.36868 1.41056 0.00000 
777.72886 1.41056 0.00000 
778.08904 1.41055 0.00000 
778.44922 1.41054 0.00000 
778.80940 1.41053 0.00000 
779.16958 1.41053 0.00000 
779.52976 1.41052 0.00000 
779.88994 1.41051 0.00000 
780.25013 1.41051 0.00000 
780.61031 1.41050 0.00000 
780.97049 1.41049 0.00000 
781.33067 1.41049 0.00000 
781.69085 1.41048 0.00000 
782.05103 1.41047 0.00000 
782.41121 1.41047 0.00000 
782.77139 1.41046 0.00000 
783.13157 1.41045 0.00000 
783.49175 1.41044 0.00000 
783.85193 1.41044 0.00000 
784.21211 1.41043 0.00000 
784.57229 1.41042 0.00000 
784.93247 1.41042 0.00000 
785.29265 1.41041 0.00000 
785.65283 1.41040 0.00000 
786.01301 1.41040 0.00000 
786.37319 1.41039 0.00000 
786.73337 1.41038 0.00000 
787.09355 1.41038 0.00000 
787.45373 1.41037 0.00000 
787.81391 1.41036 0.00000 
788.17409 1.41036 0.00000 
788.53427 1.41035 0.00000 
788.89445 1.41034 0.00000 
789.25463 1.41034 0.00000 
789.61481 1.41033 0.00000 
789.97499 1.41032 0.00000 
790.33517 1.41032 0.00000 
790.69535 1.41031 0.00000 
791.05553 1.41030 0.00000 
791.41571 1.41030 0.00000 
791.77589 1.41029 0.00000 
792.13607 1.41028 0.00000 
792.49625 1.41028 0.00000 
792.85643 1.41027 0.00000 
793.21661 1.41026 0.00000 
793.57679 1.41026 0.00000 
793.93697 1.41025 0.00000 
794.29715 1.41024 0.00000 
794.65733 1.41024 0.00000 
795.01751 1.41023 0.00000 
795.37769 1.41022 0.00000 
795.73787 1.41022 0.00000 
796.09805 1.41021 0.00000 
796.45823 1.41020 0.00000 
796.81841 1.41020 0.00000 
797.17859 1.41019 0.00000 
797.53877 1.41018 0.00000 
797.89895 1.41018 0.00000 
798.25913 1.41017 0.00000 
798.61931 1.41017 0.00000 
798.97949 1.41016 0.00000 
799.33967 1.41015 0.00000 
799.69985 1.41015 0.00000 
800.06003 1.41014 0.00000 
800.42021 1.41013 0.00000 
800.78039 1.41013 0.00000 
801.14057 1.41012 0.00000 
801.50075 1.41011 0.00000 
801.86093 1.41011 0.00000 
802.22111 1.41010 0.00000 
802.58129 1.41009 0.00000 
802.94147 1.41009 0.00000 
803.30165 1.41008 0.00000 
803.66183 1.41008 0.00000 
804.02201 1.41007 0.00000 
804.38219 1.41006 0.00000 
804.74237 1.41006 0.00000 
805.10255 1.41005 0.00000 
805.46273 1.41004 0.00000 
805.82291 1.41004 0.00000 
806.18309 1.41003 0.00000 
806.54327 1.41003 0.00000 
806.90345 1.41002 0.00000 
807.26363 1.41001 0.00000 
807.62381 1.41001 0.00000 
807.98399 1.41000 0.00000 
808.34417 1.40999 0.00000 
808.70435 1.40999 0.00000 
809.06453 1.40998 0.00000 
809.42471 1.40998 0.00000 
809.78489 1.40997 0.00000 
810.14507 1.40996 0.00000 
810.50525 1.40996 0.00000 
810.86543 1.40995 0.00000 
811.22561 1.40994 0.00000 
811.58579 1.40994 0.00000 
811.94597 1.40993 0.00000 
812.30615 1.40993 0.00000 
812.66633 1.40992 0.00000 
813.02651 1.40991 0.00000 
813.38669 1.40991 0.00000 
813.74687 1.40990 0.00000 
814.10705 1.40990 0.00000 
814.46723 1.40989 0.00000 
814.82741 1.40988 0.00000 
815.18759 1.40988 0.00000 
815.54777 1.40987 0.00000 
815.90795 1.40986 0.00000 
816.26813 1.40986 0.00000 
816.62831 1.40985 0.00000 
816.98849 1.40985 0.00000 
817.34867 1.40984 0.00000 
817.70885 1.40983 0.00000 
818.06903 1.40983 0.00000 
818.42921 1.40982 0.00000 
818.78939 1.40982 0.00000 
819.14957 1.40981 0.00000 
819.50975 1.40980 0.00000 
819.86993 1.40980 0.00000 
820.23012 1.40979 0.00000 
820.59030 1.40979 0.00000 
820.95048 1.40978 0.00000 
821.31066 1.40977 0.00000 
821.67084 1.40977 0.00000 
822.03102 1.40976 0.00000 
822.39120 1.40976 0.00000 
822.75138 1.40975 0.00000 
823.11156 1.40975 0.00000 
823.47174 1.40974 0.00000 
823.83192 1.40973 0.00000 
824.19210 1.40973 0.00000 
824.55228 1.40972 0.00000 
824.91246 1.40972 0.00000 
825.27264 1.40971 0.00000 
825.63282 1.40970 0.00000 
825.99300 1.40970 0.00000 
826.35318 1.40969 0.00000 
826.71336 1.40969 0.00000 
827.07354 1.40968 0.00000 
827.43372 1.40967 0.00000 
827.79390 1.40967 0.00000 
828.15408 1.40966 0.00000 
828.51426 1.40966 0.00000 
828.87444 1.40965 0.00000 
829.23462 1.40965 0.00000 
829.59480 1.40964 0.00000 
829.95498 1.40963 0.00000 
830.31516 1.40963 0.00000 
830.67534 1.40962 0.00000 
831.03552 1.40962 0.00000 
831.39570 1.40961 0.00000 
831.75588 1.40961 0.00000 
832.11606 1.40960 0.00000 
832.47624 1.40959 0.00000 
832.83642 1.40959 0.00000 
833.19660 1.40958 0.00000 
833.55678 1.40958 0.00000 
833.91696 1.40957 0.00000 
834.27714 1.40957 0.00000 
834.63732 1.40956 0.00000 
834.99750 1.40955 0.00000 
835.35768 1.40955 0.00000 
835.71786 1.40954 0.00000 
836.07804 1.40954 0.00000 
836.43822 1.40953 0.00000 
836.79840 1.40953 0.00000 
837.15858 1.40952 0.00000 
837.51876 1.40952 0.00000 
837.87894 1.40951 0.00000 
838.23912 1.40950 0.00000 
838.59930 1.40950 0.00000 
838.95948 1.40949 0.00000 
839.31966 1.40949 0.00000 
839.67984 1.40948 0.00000 
840.04002 1.40948 0.00000 
840.40020 1.40947 0.00000 
840.76038 1.40947 0.00000 
841.12056 1.40946 0.00000 
841.48074 1.40945 0.00000 
841.84092 1.40945 0.00000 
842.20110 1.40944 0.00000 
842.56128 1.40944 0.00000 
842.92146 1.40943 0.00000 
843.28164 1.40943 0.00000 
843.64182 1.40942 0.00000 
844.00200 1.40942 0.00000 
844.36218 1.40941 0.00000 
844.72236 1.40940 0.00000 
845.08254 1.40940 0.00000 
845.44272 1.40939 0.00000 
845.80290 1.40939 0.00000 
846.16308 1.40938 0.00000 
846.52326 1.40938 0.00000 
846.88344 1.40937 0.00000 
847.24362 1.40937 0.00000 
847.60380 1.40936 0.00000 
847.96398 1.40936 0.00000 
848.32416 1.40935 0.00000 
848.68434 1.40934 0.00000 
849.04452 1.40934 0.00000 
849.40470 1.40933 0.00000 
849.76488 1.40933 0.00000 
850.12506 1.40932 0.00000 
850.48524 1.40932 0.00000 
850.84542 1.40931 0.00000 
851.20560 1.40931 0.00000 
851.56578 1.40930 0.00000 
851.92596 1.40930 0.00000 
852.28614 1.40929 0.00000 
852.64632 1.40929 0.00000 
853.00650 1.40928 0.00000 
853.36668 1.40928 0.00000 
853.72686 1.40927 0.00000 
854.08704 1.40926 0.00000 
854.44722 1.40926 0.00000 
854.80740 1.40925 0.00000 
855.16758 1.40925 0.00000 
855.52776 1.40924 0.00000 
855.88794 1.40924 0.00000 
856.24812 1.40923 0.00000 
856.60830 1.40923 0.00000 
856.96848 1.40922 0.00000 
857.32866 1.40922 0.00000 
857.68884 1.40921 0.00000 
858.04902 1.40921 0.00000 
858.40920 1.40920 0.00000 
858.76938 1.40920 0.00000 
859.12956 1.40919 0.00000 
859.48974 1.40919 0.00000 
859.84992 1.40918 0.00000 
860.21011 1.40918 0.00000 
860.57029 1.40917 0.00000 
860.93047 1.40917 0.00000 
861.29065 1.40916 0.00000 
861.65083 1.40916 0.00000 
862.01101 1.40915 0.00000 
862.37119 1.40915 0.00000 
862.73137 1.40914 0.00000 
863.09155 1.40913 0.00000 
863.45173 1.40913 0.00000 
863.81191 1.40912 0.00000 
864.17209 1.40912 0.00000 
864.53227 1.40911 0.00000 
864.89245 1.40911 0.00000 
865.25263 1.40910 0.00000 
865.61281 1.40910 0.00000 
865.97299 1.40909 0.00000 
866.33317 1.40909 0.00000 
866.69335 1.40908 0.00000 
867.05353 1.40908 0.00000 
867.41371 1.40907 0.00000 
867.77389 1.40907 0.00000 
868.13407 1.40906 0.00000 
868.49425 1.40906 0.00000 
868.85443 1.40905 0.00000 
869.21461 1.40905 0.00000 
869.57479 1.40904 0.00000 
869.93497 1.40904 0.00000 
870.29515 1.40903 0.00000 
870.65533 1.40903 0.00000 
871.01551 1.40902 0.00000 
871.37569 1.40902 0.00000 
871.73587 1.40901 0.00000 
872.09605 1.40901 0.00000 
872.45623 1.40900 0.00000 
872.81641 1.40900 0.00000 
873.17659 1.40899 0.00000 
873.53677 1.40899 0.00000 
873.89695 1.40898 0.00000 
874.25713 1.40898 0.00000 
874.61731 1.40897 0.00000 
874.97749 1.40897 0.00000 
875.33767 1.40896 0.00000 
875.69785 1.40896 0.00000 
876.05803 1.40895 0.00000 
876.41821 1.40895 0.00000 
876.77839 1.40894 0.00000 
877.13857 1.40894 0.00000 
877.49875 1.40894 0.00000 
877.85893 1.40893 0.00000 
878.21911 1.40893 0.00000 
878.57929 1.40892 0.00000 
878.93947 1.40892 0.00000 
879.29965 1.40891 0.00000 
879.65983 1.40891 0.00000 
880.02001 1.40890 0.00000 
880.38019 1.40890 0.00000 
880.74037 1.40889 0.00000 
881.10055 1.40889 0.00000 
881.46073 1.40888 0.00000 
881.82091 1.40888 0.00000 
882.18109 1.40887 0.00000 
882.54127 1.40887 0.00000 
882.90145 1.40886 0.00000 
883.26163 1.40886 0.00000 
883.62181 1.40885 0.00000 
883.98199 1.40885 0.00000 
884.34217 1.40884 0.00000 
884.70235 1.40884 0.00000 
885.06253 1.40883 0.00000 
885.42271 1.40883 0.00000 
885.78289 1.40882 0.00000 
886.14307 1.40882 0.00000 
886.50325 1.40882 0.00000 
886.86343 1.40881 0.00000 
887.22361 1.40881 0.00000 
887.58379 1.40880 0.00000 
887.94397 1.40880 0.00000 
888.30415 1.40879 0.00000 
888.66433 1.40879 0.00000 
889.02451 1.40878 0.00000 
889.38469 1.40878 0.00000 
889.74487 1.40877 0.00000 
890.10505 1.40877 0.00000 
890.46523 1.40876 0.00000 
890.82541 1.40876 0.00000 
891.18559 1.40875 0.00000 
891.54577 1.40875 0.00000 
891.90595 1.40874 0.00000 
892.26613 1.40874 0.00000 
892.62631 1.40874 0.00000 
892.98649 1.40873 0.00000 
893.34667 1.40873 0.00000 
893.70685 1.40872 0.00000 
894.06703 1.40872 0.00000 
894.42721 1.40871 0.00000 
894.78739 1.40871 0.00000 
895.14757 1.40870 0.00000 
895.50775 1.40870 0.00000 
895.86793 1.40869 0.00000 
896.22811 1.40869 0.00000 
896.58829 1.40868 0.00000 
896.94847 1.40868 0.00000 
897.30865 1.40868 0.00000 
897.66883 1.40867 0.00000 
898.02901 1.40867 0.00000 
898.38919 1.40866 0.00000 
898.74937 1.40866 0.00000 
899.10955 1.40865 0.00000 
899.46973 1.40865 0.00000 
899.82991 1.40864 0.00000 
900.19010 1.40864 0.00000 
900.55028 1.40864 0.00000 
900.91046 1.40863 0.00000 
901.27064 1.40863 0.00000 
901.63082 1.40862 0.00000 
901.99100 1.40862 0.00000 
902.35118 1.40861 0.00000 
902.71136 1.40861 0.00000 
903.07154 1.40860 0.00000 
903.43172 1.40860 0.00000 
903.79190 1.40859 0.00000 
904.15208 1.40859 0.00000 
904.51226 1.40859 0.00000 
904.87244 1.40858 0.00000 
905.23262 1.40858 0.00000 
905.59280 1.40857 0.00000 
905.95298 1.40857 0.00000 
906.31316 1.40856 0.00000 
906.67334 1.40856 0.00000 
907.03352 1.40855 0.00000 
907.39370 1.40855 0.00000 
907.75388 1.40855 0.00000 
908.11406 1.40854 0.00000 
908.47424 1.40854 0.00000 
908.83442 1.40853 0.00000 
909.19460 1.40853 0.00000 
909.55478 1.40852 0.00000 
909.91496 1.40852 0.00000 
910.27514 1.40852 0.00000 
910.63532 1.40851 0.00000 
910.99550 1.40851 0.00000 
911.35568 1.40850 0.00000 
911.71586 1.40850 0.00000 
912.07604 1.40849 0.00000 
912.43622 1.40849 0.00000 
912.79640 1.40848 0.00000 
913.15658 1.40848 0.00000 
913.51676 1.40848 0.00000 
913.87694 1.40847 0.00000 
914.23712 1.40847 0.00000 
914.59730 1.40846 0.00000 
914.95748 1.40846 0.00000 
915.31766 1.40845 0.00000 
915.67784 1.40845 0.00000 
916.03802 1.40845 0.00000 
916.39820 1.40844 0.00000 
916.75838 1.40844 0.00000 
917.11856 1.40843 0.00000 
917.47874 1.40843 0.00000 
917.83892 1.40842 0.00000 
918.19910 1.40842 0.00000 
918.55928 1.40842 0.00000 
918.91946 1.40841 0.00000 
919.27964 1.40841 0.00000 
919.63982 1.40840 0.00000 
920.00000 1.40840 0.00000 
